03/12/2020 13:43
Laser wavelength: -3
N to average: 1
Int: 1.00 s
LambdaCenter: 700.0 nm
grating: 0 
Int: 1.00 s
LambdaCenter: 800.0 nm
grating: 0 
 -------------
Grating 0=300 gr 1000 nm/mirror
Grating 1=900 gr 600 nm/600 gr 1000 nm
Grating 2=1800 gr 500 nm
2.021554	3.000000	1.735448	2797.000000
2.020991	6.000000	1.735038	3280.000000
2.020428	7.000000	1.734628	3724.000000
2.019865	-4.000000	1.734219	4281.000000
2.019303	8.000000	1.733809	4961.000000
2.018741	-1.000000	1.733400	5717.000000
2.018179	-2.000000	1.732991	6547.000000
2.017617	-1.000000	1.732583	7540.000000
2.017056	-2.000000	1.732174	8697.000000
2.016495	-10.000000	1.731766	10016.000000
2.015935	9.000000	1.731358	11634.000000
2.015374	13.000000	1.730950	13434.000000
2.014814	-5.000000	1.730542	15478.000000
2.014255	2.000000	1.730134	17803.000000
2.013695	-6.000000	1.729727	20474.000000
2.013136	2.000000	1.729320	23456.000000
2.012578	9.000000	1.728913	26863.000000
2.012019	0.000000	1.728506	30724.000000
2.011461	4.000000	1.728099	34864.000000
2.010903	-2.000000	1.727693	39514.000000
2.010346	7.000000	1.727286	44582.000000
2.009789	11.000000	1.726880	50058.000000
2.009232	5.000000	1.726475	55936.000000
2.008675	0.000000	1.726069	62376.000000
2.008119	11.000000	1.725663	68929.000000
2.007563	7.000000	1.725258	75826.000000
2.007007	3.000000	1.724853	82910.000000
2.006452	-4.000000	1.724448	90215.000000
2.005897	5.000000	1.724043	97888.000000
2.005342	7.000000	1.723639	106032.000000
2.004788	-4.000000	1.723234	113196.000000
2.004234	7.000000	1.722830	120773.000000
2.003680	2.000000	1.722426	127142.000000
2.003127	12.000000	1.722023	133842.000000
2.002573	1.000000	1.721619	139612.000000
2.002021	4.000000	1.721216	144599.000000
2.001468	12.000000	1.720812	148390.000000
2.000916	5.000000	1.720409	151403.000000
2.000364	3.000000	1.720006	153353.000000
1.999812	-3.000000	1.719604	154377.000000
1.999261	8.000000	1.719201	154139.000000
1.998710	-4.000000	1.718799	152683.000000
1.998159	0.000000	1.718397	150006.000000
1.997609	2.000000	1.717995	146812.000000
1.997058	4.000000	1.717593	142365.000000
1.996509	7.000000	1.717192	137386.000000
1.995959	7.000000	1.716791	132148.000000
1.995410	4.000000	1.716389	126285.000000
1.994861	-2.000000	1.715989	120504.000000
1.994312	5.000000	1.715588	114491.000000
1.993764	14.000000	1.715187	108259.000000
1.993216	3.000000	1.714787	101634.000000
1.992668	6.000000	1.714387	95397.000000
1.992121	13.000000	1.713987	89071.000000
1.991574	9.000000	1.713587	83145.000000
1.991027	3.000000	1.713187	76940.000000
1.990480	1.000000	1.712788	71186.000000
1.989934	-1.000000	1.712388	64949.000000
1.989388	10.000000	1.711989	59484.000000
1.988843	3.000000	1.711590	53790.000000
1.988297	5.000000	1.711192	48602.000000
1.987752	3.000000	1.710793	44356.000000
1.987208	-7.000000	1.710395	40381.000000
1.986663	-1.000000	1.709997	36742.000000
1.986119	-2.000000	1.709599	33273.000000
1.985575	5.000000	1.709201	30321.000000
1.985032	11.000000	1.708803	27567.000000
1.984489	5.000000	1.708406	25138.000000
1.983946	-1.000000	1.708009	22872.000000
1.983403	-6.000000	1.707612	20667.000000
1.982861	5.000000	1.707215	18885.000000
1.982319	5.000000	1.706818	17393.000000
1.981777	5.000000	1.706422	15938.000000
1.981235	1.000000	1.706025	14654.000000
1.980694	7.000000	1.705629	13415.000000
1.980153	4.000000	1.705233	12362.000000
1.979613	12.000000	1.704837	11334.000000
1.979073	3.000000	1.704442	10395.000000
1.978533	10.000000	1.704046	9644.000000
1.977993	6.000000	1.703651	8831.000000
1.977454	11.000000	1.703256	8053.000000
1.976914	1.000000	1.702861	7482.000000
1.976376	-2.000000	1.702467	6916.000000
1.975837	3.000000	1.702072	6272.000000
1.975299	5.000000	1.701678	5846.000000
1.974761	0.000000	1.701284	5353.000000
1.974223	9.000000	1.700890	4954.000000
1.973686	0.000000	1.700496	4632.000000
1.973149	8.000000	1.700103	4344.000000
1.972612	8.000000	1.699709	3995.000000
1.972076	3.000000	1.699316	3724.000000
1.971540	6.000000	1.698923	3445.000000
1.971004	14.000000	1.698530	3233.000000
1.970468	-4.000000	1.698138	3007.000000
1.969933	10.000000	1.697745	2772.000000
1.969398	9.000000	1.697353	2575.000000
1.968863	-5.000000	1.696961	2438.000000
1.968329	7.000000	1.696569	2234.000000
1.967795	15.000000	1.696177	2110.000000
1.967261	5.000000	1.695785	1992.000000
1.966727	8.000000	1.695394	1853.000000
1.966194	7.000000	1.695003	1728.000000
1.965661	8.000000	1.694612	1622.000000
1.965128	-8.000000	1.694221	1548.000000
1.964596	2.000000	1.693830	1468.000000
1.964064	-2.000000	1.693440	1399.000000
1.963532	12.000000	1.693050	1286.000000
1.963001	2.000000	1.692659	1202.000000
1.962469	-2.000000	1.692269	1103.000000
1.961938	9.000000	1.691880	1065.000000
1.961408	3.000000	1.691490	978.000000
1.960877	5.000000	1.691101	915.000000
1.960347	14.000000	1.690711	859.000000
1.959817	0.000000	1.690322	811.000000
1.959288	3.000000	1.689934	762.000000
1.958759	5.000000	1.689545	723.000000
1.958230	13.000000	1.689156	686.000000
1.957701	4.000000	1.688768	634.000000
1.957173	2.000000	1.688380	625.000000
1.956645	0.000000	1.687992	608.000000
1.956117	5.000000	1.687604	579.000000
1.955589	7.000000	1.687217	573.000000
1.955062	-2.000000	1.686829	548.000000
1.954535	13.000000	1.686442	536.000000
1.954008	9.000000	1.686055	524.000000
1.953482	7.000000	1.685668	524.000000
1.952956	0.000000	1.685281	505.000000
1.952430	7.000000	1.684895	500.000000
1.951905	8.000000	1.684508	504.000000
1.951379	4.000000	1.684122	475.000000
1.950854	7.000000	1.683736	477.000000
1.950330	8.000000	1.683350	474.000000
1.949805	-5.000000	1.682964	454.000000
1.949281	-3.000000	1.682579	459.000000
1.948757	7.000000	1.682194	439.000000
1.948234	4.000000	1.681809	416.000000
1.947711	8.000000	1.681424	425.000000
1.947188	11.000000	1.681039	390.000000
1.946665	4.000000	1.680654	375.000000
1.946142	4.000000	1.680270	368.000000
1.945620	5.000000	1.679885	351.000000
1.945098	3.000000	1.679501	326.000000
1.944577	4.000000	1.679117	304.000000
1.944055	4.000000	1.678734	317.000000
1.943534	-6.000000	1.678350	299.000000
1.943014	7.000000	1.677967	294.000000
1.942493	6.000000	1.677584	273.000000
1.941973	13.000000	1.677201	266.000000
1.941453	4.000000	1.676818	279.000000
1.940933	5.000000	1.676435	259.000000
1.940414	0.000000	1.676053	249.000000
1.939895	11.000000	1.675670	252.000000
1.939376	8.000000	1.675288	227.000000
1.938858	0.000000	1.674906	227.000000
1.938339	1.000000	1.674524	233.000000
1.937821	4.000000	1.674143	219.000000
1.937304	11.000000	1.673761	232.000000
1.936786	9.000000	1.673380	213.000000
1.936269	8.000000	1.672999	204.000000
1.935752	8.000000	1.672618	199.000000
1.935236	4.000000	1.672237	196.000000
1.934719	11.000000	1.671856	197.000000
1.934203	7.000000	1.671476	187.000000
1.933688	2.000000	1.671096	193.000000
1.933172	7.000000	1.670716	173.000000
1.932657	2.000000	1.670336	175.000000
1.932142	-2.000000	1.669956	179.000000
1.931627	6.000000	1.669577	161.000000
1.931113	14.000000	1.669197	157.000000
1.930599	-2.000000	1.668818	152.000000
1.930085	14.000000	1.668439	159.000000
1.929571	9.000000	1.668060	148.000000
1.929058	9.000000	1.667681	154.000000
1.928545	10.000000	1.667303	133.000000
1.928032	6.000000	1.666925	136.000000
1.927520	10.000000	1.666546	128.000000
1.927007	12.000000	1.666168	123.000000
1.926496	10.000000	1.665790	113.000000
1.925984	16.000000	1.665413	104.000000
1.925472	7.000000	1.665035	128.000000
1.924961	13.000000	1.664658	104.000000
1.924451	9.000000	1.664281	105.000000
1.923940	18.000000	1.663904	113.000000
1.923430	13.000000	1.663527	103.000000
1.922920	21.000000	1.663150	90.000000
1.922410	20.000000	1.662774	110.000000
1.921900	22.000000	1.662398	104.000000
1.921391	21.000000	1.662022	105.000000
1.920882	12.000000	1.661646	94.000000
1.920373	14.000000	1.661270	91.000000
1.919865	19.000000	1.660894	81.000000
1.919357	21.000000	1.660519	74.000000
1.918849	21.000000	1.660143	83.000000
1.918341	19.000000	1.659768	83.000000
1.917834	20.000000	1.659393	84.000000
1.917327	11.000000	1.659019	74.000000
1.916820	23.000000	1.658644	76.000000
1.916314	17.000000	1.658270	77.000000
1.915807	21.000000	1.657895	68.000000
1.915301	25.000000	1.657521	74.000000
1.914796	24.000000	1.657147	61.000000
1.914290	27.000000	1.656774	64.000000
1.913785	30.000000	1.656400	61.000000
1.913280	43.000000	1.656027	72.000000
1.912775	35.000000	1.655653	53.000000
1.912271	43.000000	1.655280	57.000000
1.911767	47.000000	1.654907	66.000000
1.911263	56.000000	1.654535	59.000000
1.910759	51.000000	1.654162	65.000000
1.910256	65.000000	1.653790	48.000000
1.909753	66.000000	1.653417	54.000000
1.909250	71.000000	1.653045	58.000000
1.908748	85.000000	1.652673	56.000000
1.908245	104.000000	1.652302	69.000000
1.907743	115.000000	1.651930	59.000000
1.907241	128.000000	1.651559	62.000000
1.906740	144.000000	1.651187	58.000000
1.906239	174.000000	1.650816	60.000000
1.905738	181.000000	1.650445	60.000000
1.905237	202.000000	1.650075	51.000000
1.904737	214.000000	1.649704	55.000000
1.904236	244.000000	1.649334	48.000000
1.903737	256.000000	1.648964	57.000000
1.903237	290.000000	1.648593	50.000000
1.902738	320.000000	1.648224	53.000000
1.902238	364.000000	1.647854	60.000000
1.901740	381.000000	1.647484	46.000000
1.901241	424.000000	1.647115	62.000000
1.900743	462.000000	1.646746	44.000000
1.900244	506.000000	1.646376	65.000000
1.899747	557.000000	1.646008	47.000000
1.899249	626.000000	1.645639	54.000000
1.898752	669.000000	1.645270	51.000000
1.898255	742.000000	1.644902	47.000000
1.897758	807.000000	1.644534	49.000000
1.897261	889.000000	1.644166	53.000000
1.896765	957.000000	1.643798	44.000000
1.896269	1064.000000	1.643430	50.000000
1.895773	1164.000000	1.643062	48.000000
1.895278	1254.000000	1.642695	41.000000
1.894783	1402.000000	1.642328	53.000000
1.894288	1538.000000	1.641960	52.000000
1.893793	1693.000000	1.641594	61.000000
1.893299	1841.000000	1.641227	52.000000
1.892804	1971.000000	1.640860	48.000000
1.892311	2174.000000	1.640494	46.000000
1.891817	2377.000000	1.640127	50.000000
1.891323	2602.000000	1.639761	43.000000
1.890830	2816.000000	1.639395	53.000000
1.890337	3131.000000	1.639030	50.000000
1.889845	3383.000000	1.638664	55.000000
1.889352	3591.000000	1.638298	50.000000
1.888860	3890.000000	1.637933	57.000000
1.888368	4238.000000	1.637568	42.000000
1.887877	4550.000000	1.637203	43.000000
1.887385	4911.000000	1.636838	52.000000
1.886894	5325.000000	1.636474	58.000000
1.886403	5713.000000	1.636109	47.000000
1.885913	6151.000000	1.635745	45.000000
1.885423	6668.000000	1.635381	41.000000
1.884932	7102.000000	1.635017	55.000000
1.884443	7673.000000	1.634653	52.000000
1.883953	8186.000000	1.634289	50.000000
1.883464	8767.000000	1.633926	49.000000
1.882975	9382.000000	1.633562	50.000000
1.882486	9894.000000	1.633199	48.000000
1.881997	10609.000000	1.632836	43.000000
1.881509	11259.000000	1.632473	58.000000
1.881021	11897.000000	1.632110	50.000000
1.880533	12637.000000	1.631748	57.000000
1.880046	13260.000000	1.631385	40.000000
1.879558	13905.000000	1.631023	51.000000
1.879071	14652.000000	1.630661	56.000000
1.878584	15386.000000	1.630299	48.000000
1.878098	15937.000000	1.629938	59.000000
1.877612	16539.000000	1.629576	64.000000
1.877126	17150.000000	1.629215	41.000000
1.876640	17647.000000	1.628853	58.000000
1.876154	18130.000000	1.628492	58.000000
1.875669	18492.000000	1.628131	47.000000
1.875184	18902.000000	1.627770	47.000000
1.874699	19124.000000	1.627410	60.000000
1.874215	19282.000000	1.627049	68.000000
1.873730	19364.000000	1.626689	50.000000
1.873246	19346.000000	1.626329	54.000000
1.872763	19321.000000	1.625969	53.000000
1.872279	19047.000000	1.625609	54.000000
1.871796	18698.000000	1.625249	49.000000
1.871313	18421.000000	1.624890	53.000000
1.870830	17965.000000	1.624531	61.000000
1.870347	17487.000000	1.624171	61.000000
1.869865	16891.000000	1.623812	56.000000
1.869383	16418.000000	1.623453	52.000000
1.868901	15743.000000	1.623095	61.000000
1.868420	15032.000000	1.622736	69.000000
1.867939	14331.000000	1.622378	61.000000
1.867458	13555.000000	1.622020	56.000000
1.866977	12845.000000	1.621662	50.000000
1.866496	12154.000000	1.621304	54.000000
1.866016	11450.000000	1.620946	58.000000
1.865536	10686.000000	1.620588	62.000000
1.865056	9990.000000	1.620231	52.000000
1.864577	9321.000000	1.619873	67.000000
1.864097	8656.000000	1.619516	57.000000
1.863618	8054.000000	1.619159	58.000000
1.863139	7470.000000	1.618803	65.000000
1.862661	6905.000000	1.618446	64.000000
1.862182	6426.000000	1.618089	64.000000
1.861704	5939.000000	1.617733	53.000000
1.861227	5487.000000	1.617377	54.000000
1.860749	5033.000000	1.617021	57.000000
1.860272	4552.000000	1.616665	56.000000
1.859794	4168.000000	1.616309	68.000000
1.859318	3825.000000	1.615954	65.000000
1.858841	3482.000000	1.615598	53.000000
1.858365	3187.000000	1.615243	66.000000
1.857889	2899.000000	1.614888	65.000000
1.857413	2628.000000	1.614533	57.000000
1.856937	2405.000000	1.614178	62.000000
1.856462	2198.000000	1.613824	67.000000
1.855987	2007.000000	1.613469	57.000000
1.855512	1820.000000	1.613115	56.000000
1.855037	1648.000000	1.612761	59.000000
1.854563	1528.000000	1.612407	58.000000
1.854088	1405.000000	1.612053	61.000000
1.853614	1285.000000	1.611699	72.000000
1.853141	1186.000000	1.611346	57.000000
1.852667	1089.000000	1.610992	60.000000
1.852194	1012.000000	1.610639	66.000000
1.851721	926.000000	1.610286	64.000000
1.851248	865.000000	1.609933	62.000000
1.850776	794.000000	1.609580	69.000000
1.850304	735.000000	1.609228	62.000000
1.849832	719.000000	1.608875	69.000000
1.849360	667.000000	1.608523	60.000000
1.848888	636.000000	1.608171	64.000000
1.848417	611.000000	1.607819	66.000000
1.847946	580.000000	1.607467	62.000000
1.847475	554.000000	1.607115	70.000000
1.847005	540.000000	1.606764	61.000000
1.846534	516.000000	1.606412	63.000000
1.846064	515.000000	1.606061	60.000000
1.845594	484.000000	1.605710	70.000000
1.845125	481.000000	1.605359	67.000000
1.844656	465.000000	1.605008	61.000000
1.844186	467.000000	1.604658	67.000000
1.843718	448.000000	1.604307	61.000000
1.843249	455.000000	1.603957	62.000000
1.842780	451.000000	1.603607	68.000000
1.842312	453.000000	1.603257	69.000000
1.841844	436.000000	1.602907	64.000000
1.841377	450.000000	1.602557	71.000000
1.840909	454.000000	1.602208	62.000000
1.840442	441.000000	1.601858	68.000000
1.839975	468.000000	1.601509	63.000000
1.839508	460.000000	1.601160	76.000000
1.839042	448.000000	1.600811	61.000000
1.838575	453.000000	1.600462	72.000000
1.838109	465.000000	1.600114	78.000000
1.837644	446.000000	1.599765	62.000000
1.837178	457.000000	1.599417	73.000000
1.836713	455.000000	1.599069	69.000000
1.836248	437.000000	1.598721	66.000000
1.835783	454.000000	1.598373	71.000000
1.835318	438.000000	1.598025	68.000000
1.834854	438.000000	1.597678	66.000000
1.834390	422.000000	1.597330	61.000000
1.833926	415.000000	1.596983	72.000000
1.833462	406.000000	1.596636	70.000000
1.832999	400.000000	1.596289	61.000000
1.832535	383.000000	1.595942	67.000000
1.832072	384.000000	1.595595	72.000000
1.831610	373.000000	1.595249	68.000000
1.831147	363.000000	1.594902	66.000000
1.830685	377.000000	1.594556	68.000000
1.830223	345.000000	1.594210	70.000000
1.829761	330.000000	1.593864	78.000000
1.829299	336.000000	1.593519	69.000000
1.828838	336.000000	1.593173	71.000000
1.828377	334.000000	1.592828	73.000000
1.827916	309.000000	1.592482	70.000000
1.827455	313.000000	1.592137	70.000000
1.826995	294.000000	1.591792	61.000000
1.826535	299.000000	1.591447	80.000000
1.826075	287.000000	1.591102	70.000000
1.825615	272.000000	1.590758	77.000000
1.825156	276.000000	1.590413	69.000000
1.824696	254.000000	1.590069	80.000000
1.824237	251.000000	1.589725	73.000000
1.823779	246.000000	1.589381	67.000000
1.823320	236.000000	1.589037	71.000000
1.822862	235.000000	1.588694	65.000000
1.822404	220.000000	1.588350	67.000000
1.821946	217.000000	1.588007	79.000000
1.821488	213.000000	1.587664	71.000000
1.821031	201.000000	1.587321	80.000000
1.820574	200.000000	1.586978	72.000000
1.820117	195.000000	1.586635	75.000000
1.819660	173.000000	1.586292	77.000000
1.819203	177.000000	1.585950	75.000000
1.818747	167.000000	1.585607	71.000000
1.818291	147.000000	1.585265	71.000000
1.817835	154.000000	1.584923	76.000000
1.817380	144.000000	1.584581	73.000000
1.816924	139.000000	1.584240	79.000000
1.816469	125.000000	1.583898	61.000000
1.816014	116.000000	1.583556	69.000000
1.815560	115.000000	1.583215	72.000000
1.815105	118.000000	1.582874	75.000000
1.814651	110.000000	1.582533	71.000000
1.814197	101.000000	1.582192	77.000000
1.813743	92.000000	1.581851	69.000000
1.813290	98.000000	1.581511	71.000000
1.812836	90.000000	1.581170	70.000000
1.812383	79.000000	1.580830	73.000000
1.811930	75.000000	1.580490	76.000000
1.811478	76.000000	1.580150	75.000000
1.811025	83.000000	1.579810	78.000000
1.810573	70.000000	1.579471	72.000000
1.810121	70.000000	1.579131	76.000000
1.809670	72.000000	1.578792	87.000000
1.809218	71.000000	1.578452	75.000000
1.808767	64.000000	1.578113	77.000000
1.808316	74.000000	1.577774	70.000000
1.807865	57.000000	1.577436	71.000000
1.807414	53.000000	1.577097	83.000000
1.806964	49.000000	1.576758	79.000000
1.806514	54.000000	1.576420	71.000000
1.806064	57.000000	1.576082	77.000000
1.805614	58.000000	1.575744	72.000000
1.805165	49.000000	1.575406	72.000000
1.804715	42.000000	1.575068	72.000000
1.804266	49.000000	1.574730	78.000000
1.803818	50.000000	1.574393	71.000000
1.803369	47.000000	1.574055	66.000000
1.802921	36.000000	1.573718	75.000000
1.802472	46.000000	1.573381	78.000000
1.802025	39.000000	1.573044	80.000000
1.801577	46.000000	1.572707	78.000000
1.801129	38.000000	1.572371	75.000000
1.800682	51.000000	1.572034	76.000000
1.800235	42.000000	1.571698	68.000000
1.799788	44.000000	1.571362	77.000000
1.799342	38.000000	1.571026	69.000000
1.798895	40.000000	1.570690	75.000000
1.798449	42.000000	1.570354	75.000000
1.798003	49.000000	1.570018	78.000000
1.797558	39.000000	1.569683	88.000000
1.797112	39.000000	1.569347	81.000000
1.796667	35.000000	1.569012	70.000000
1.796222	39.000000	1.568677	79.000000
1.795777	38.000000	1.568342	88.000000
1.795332	52.000000	1.568008	76.000000
1.794888	36.000000	1.567673	69.000000
1.794444	42.000000	1.567338	72.000000
1.794000	40.000000	1.567004	76.000000
1.793556	34.000000	1.566670	79.000000
1.793113	45.000000	1.566336	79.000000
1.792670	36.000000	1.566002	75.000000
1.792226	40.000000	1.565668	82.000000
1.791784	37.000000	1.565334	71.000000
1.791341	34.000000	1.565001	86.000000
1.790899	34.000000	1.564668	82.000000
1.790456	45.000000	1.564334	86.000000
1.790014	33.000000	1.564001	70.000000
1.789573	25.000000	1.563668	76.000000
1.789131	30.000000	1.563336	78.000000
1.788690	28.000000	1.563003	78.000000
1.788249	36.000000	1.562670	80.000000
1.787808	38.000000	1.562338	86.000000
1.787367	33.000000	1.562006	79.000000
1.786927	42.000000	1.561674	78.000000
1.786487	38.000000	1.561342	82.000000
1.786047	38.000000	1.561010	74.000000
1.785607	33.000000	1.560678	70.000000
1.785167	30.000000	1.560347	81.000000
1.784728	36.000000	1.560016	84.000000
1.784289	43.000000	1.559684	69.000000
1.783850	25.000000	1.559353	83.000000
1.783411	25.000000	1.559022	73.000000
1.782973	42.000000	1.558692	71.000000
1.782534	18.000000	1.558361	82.000000
1.782096	28.000000	1.558030	82.000000
1.781658	34.000000	1.557700	75.000000
1.781221	37.000000	1.557370	73.000000
1.780783	42.000000	1.557040	85.000000
1.780346	36.000000	1.556710	79.000000
1.779909	32.000000	1.556380	88.000000
1.779472	32.000000	1.556050	78.000000
1.779036	31.000000	1.555721	83.000000
1.778600	30.000000	1.555391	75.000000
1.778163	20.000000	1.555062	86.000000
1.777727	34.000000	1.554733	86.000000
1.777292	33.000000	1.554404	84.000000
1.776856	24.000000	1.554075	80.000000
1.776421	29.000000	1.553746	79.000000
1.775986	26.000000	1.553418	80.000000
1.775551	33.000000	1.553089	83.000000
1.775116	27.000000	1.552761	77.000000
1.774682	29.000000	1.552433	79.000000
1.774248	27.000000	1.552105	82.000000
1.773814	40.000000	1.551777	77.000000
1.773380	40.000000	1.551449	74.000000
1.772946	40.000000	1.551122	87.000000
1.772513	22.000000	1.550794	76.000000
1.772080	30.000000	1.550467	82.000000
1.771647	32.000000	1.550140	78.000000
1.771214	31.000000	1.549812	78.000000
1.770782	27.000000	1.549486	77.000000
1.770349	25.000000	1.549159	77.000000
1.769917	35.000000	1.548832	72.000000
1.769485	29.000000	1.548506	77.000000
1.769054	32.000000	1.548179	72.000000
1.768622	25.000000	1.547853	77.000000
1.768191	28.000000	1.547527	72.000000
1.767760	26.000000	1.547201	82.000000
1.767329	26.000000	1.546875	84.000000
1.766899	34.000000	1.546550	80.000000
1.766468	25.000000	1.546224	80.000000
1.766038	37.000000	1.545899	79.000000
1.765608	36.000000	1.545573	82.000000
1.765178	36.000000	1.545248	85.000000
1.764749	32.000000	1.544923	83.000000
1.764319	34.000000	1.544598	65.000000
1.763890	30.000000	1.544274	76.000000
1.763461	35.000000	1.543949	75.000000
1.763032	41.000000	1.543625	71.000000
1.762604	30.000000	1.543300	79.000000
1.762176	39.000000	1.542976	90.000000
1.761747	35.000000	1.542652	80.000000
1.761320	42.000000	1.542328	83.000000
1.760892	46.000000	1.542005	69.000000
1.760464	45.000000	1.541681	74.000000
1.760037	49.000000	1.541357	84.000000
1.759610	38.000000	1.541034	79.000000
1.759183	38.000000	1.540711	80.000000
1.758757	50.000000	1.540388	91.000000
1.758330	50.000000	1.540065	77.000000
1.757904	54.000000	1.539742	79.000000
1.757478	57.000000	1.539419	73.000000
1.757052	57.000000	1.539097	74.000000
1.756626	61.000000	1.538774	75.000000
1.756201	63.000000	1.538452	79.000000
1.755776	61.000000	1.538130	80.000000
1.755351	62.000000	1.537808	80.000000
1.754926	61.000000	1.537486	68.000000
1.754501	60.000000	1.537164	68.000000
1.754077	74.000000	1.536843	76.000000
1.753653	51.000000	1.536521	72.000000
1.753229	70.000000	1.536200	74.000000
1.752805	75.000000	1.535879	77.000000
1.752381	85.000000	1.535558	77.000000
1.751958	82.000000	1.535237	71.000000
1.751535	82.000000	1.534916	73.000000
1.751112	103.000000	1.534595	72.000000
1.750689	106.000000	1.534275	74.000000
1.750267	101.000000	1.533954	91.000000
1.749844	105.000000	1.533634	82.000000
1.749422	123.000000	1.533314	77.000000
1.749000	123.000000	1.532994	82.000000
1.748578	123.000000	1.532674	85.000000
1.748157	118.000000	1.532355	81.000000
1.747736	140.000000	1.532035	76.000000
1.747314	161.000000	1.531715	83.000000
1.746893	167.000000	1.531396	74.000000
1.746473	168.000000	1.531077	74.000000
1.746052	183.000000	1.530758	80.000000
1.745632	195.000000	1.530439	71.000000
1.745212	216.000000	1.530120	82.000000
1.744792	221.000000	1.529802	81.000000
1.744372	244.000000	1.529483	80.000000
1.743953	264.000000	1.529165	89.000000
1.743533	277.000000	1.528846	80.000000
1.743114	312.000000	1.528528	77.000000
1.742695	359.000000	1.528210	78.000000
1.742277	383.000000	1.527892	76.000000
1.741858	418.000000	1.527575	76.000000
1.741440	466.000000	1.527257	78.000000
1.741022	517.000000	1.526940	74.000000
1.740604	585.000000	1.526622	89.000000
1.740186	644.000000	1.526305	70.000000
1.739769	739.000000	1.525988	80.000000
1.739351	774.000000	1.525671	82.000000
1.738934	888.000000	1.525354	70.000000
1.738517	1028.000000	1.525038	78.000000
1.738101	1158.000000	1.524721	77.000000
1.737684	1313.000000	1.524405	91.000000
1.737268	1469.000000	1.524088	74.000000
1.736852	1638.000000	1.523772	80.000000
1.736436	1864.000000	1.523456	80.000000
1.736020	2129.000000	1.523140	80.000000
1.735605	2438.000000	1.522825	79.000000
1.735189	2757.000000	1.522509	85.000000
1.734774	3161.000000	1.522193	95.000000
1.734359	3643.000000	1.521878	84.000000
1.733945	4160.000000	1.521563	87.000000
1.733530	4836.000000	1.521248	106.000000
1.733116	5568.000000	1.520933	109.000000
1.732702	6392.000000	1.520618	108.000000
1.732288	7395.000000	1.520303	110.000000
1.731874	8474.000000	1.519989	126.000000
1.731461	9765.000000	1.519674	141.000000
1.731047	11323.000000	1.519360	136.000000
1.730634	13052.000000	1.519046	148.000000
1.730221	15071.000000	1.518732	174.000000
1.729808	17418.000000	1.518418	191.000000
1.729396	19924.000000	1.518104	203.000000
1.728984	22784.000000	1.517790	241.000000
1.728571	26135.000000	1.517477	286.000000
1.728160	29926.000000	1.517163	309.000000
1.727748	33954.000000	1.516850	380.000000
1.727336	38354.000000	1.516537	444.000000
1.726925	43121.000000	1.516224	499.000000
1.726514	48516.000000	1.515911	607.000000
1.726103	54186.000000	1.515598	736.000000
1.725692	60357.000000	1.515285	874.000000
1.725281	66731.000000	1.514973	1044.000000
1.724871	73516.000000	1.514661	1239.000000
1.724461	80483.000000	1.514348	1495.000000
1.724051	87473.000000	1.514036	1837.000000
1.723641	94576.000000	1.513724	2192.000000
1.723231	102148.000000	1.513412	2657.000000
1.722822	109531.000000	1.513101	3203.000000
1.722413	116471.000000	1.512789	3880.000000
1.722004	123040.000000	1.512478	4643.000000
1.721595	128694.000000	1.512166	5598.000000
1.721186	134969.000000	1.511855	6705.000000
1.720778	139492.000000	1.511544	8152.000000
1.720370	143540.000000	1.511233	9839.000000
1.719962	146082.000000	1.510922	12030.000000
1.719554	148339.000000	1.510611	15233.000000
1.719146	149711.000000	1.510301	19765.000000
1.718739	149833.000000	1.509990	26044.000000
1.718331	148204.000000	1.509680	33526.000000
1.717924	146309.000000	1.509370	41345.000000
1.717518	142994.000000	1.509060	49563.000000
1.717111	138917.000000	1.508750	59059.000000
1.716704	134484.000000	1.508440	68119.000000
1.716298	128966.000000	1.508130	74805.000000
1.715892	123591.000000	1.507821	80184.000000
1.715486	117848.000000	1.507511	84288.000000
1.715080	112188.000000	1.507202	86802.000000
1.714675	106190.000000	1.506893	88524.000000
1.714269	100077.000000	1.506584	87878.000000
1.713864	93814.000000	1.506275	85121.000000
1.713459	87468.000000	1.505966	80503.000000
1.713054	81749.000000	1.505657	74026.000000
1.712650	75981.000000	1.505349	65491.000000
1.712245	70668.000000	1.505040	56617.000000
1.711841	64395.000000	1.504732	48808.000000
1.711437	59095.000000	1.504424	42957.000000
1.711033	53692.000000	1.504116	37291.000000
1.710630	48559.000000	1.503808	31860.000000
1.710226	44046.000000	1.503500	26084.000000
1.709823	39882.000000	1.503192	20692.000000
1.709420	36442.000000	1.502885	16111.000000
1.709017	33139.000000	1.502577	12367.000000
1.708615	30059.000000	1.502270	10015.000000
1.708212	27197.000000	1.501963	8444.000000
1.707810	25064.000000	1.501656	7307.000000
1.707408	22669.000000	1.501349	6367.000000
1.707006	20568.000000	1.501042	5702.000000
1.706604	18717.000000	1.500736	5166.000000
1.706202	17172.000000	1.500429	4808.000000
1.705801	15739.000000	1.500123	4575.000000
1.705400	14436.000000	1.499816	4483.000000
1.704999	13236.000000	1.499510	4437.000000
1.704598	12203.000000	1.499204	4506.000000
1.704198	11134.000000	1.498898	4627.000000
1.703797	10182.000000	1.498592	4823.000000
1.703397	9428.000000	1.498287	5082.000000
1.702997	8693.000000	1.497981	5419.000000
1.702597	7992.000000	1.497676	5854.000000
1.702197	7335.000000	1.497371	6271.000000
1.701798	6802.000000	1.497065	6779.000000
1.701399	6223.000000	1.496760	7386.000000
1.701000	5715.000000	1.496455	8029.000000
1.700601	5328.000000	1.496151	8622.000000
1.700202	4896.000000	1.495846	9302.000000
1.699803	4625.000000	1.495541	10167.000000
1.699405	4281.000000	1.495237	11044.000000
1.699007	3974.000000	1.494933	11989.000000
1.698609	3691.000000	1.494629	12961.000000
1.698211	3404.000000	1.494325	14142.000000
1.697814	3211.000000	1.494021	15584.000000
1.697416	2969.000000	1.493717	17110.000000
1.697019	2747.000000	1.493413	18759.000000
1.696622	2547.000000	1.493110	20806.000000
1.696225	2395.000000	1.492806	23146.000000
1.695828	2195.000000	1.492503	25809.000000
1.695432	2070.000000	1.492200	28868.000000
1.695036	1934.000000	1.491897	32514.000000
1.694639	1809.000000	1.491594	36645.000000
1.694244	1691.000000	1.491291	41393.000000
1.693848	1588.000000	1.490988	47194.000000
1.693452	1484.000000	1.490686	53704.000000
1.693057	1413.000000	1.490383	61421.000000
1.692662	1343.000000	1.490081	70166.000000
1.692267	1263.000000	1.489779	80153.000000
1.691872	1161.000000	1.489477	91868.000000
1.691477	1098.000000	1.489175	104739.000000
1.691083	1038.000000	1.488873	119575.000000
1.690688	961.000000	1.488571	135487.000000
1.690294	904.000000	1.488269	152486.000000
1.689900	851.000000	1.487968	169298.000000
1.689507	806.000000	1.487667	186613.000000
1.689113	754.000000	1.487365	201722.000000
1.688720	705.000000	1.487064	214160.000000
1.688327	647.000000	1.486763	225047.000000
1.687934	640.000000	1.486463	233716.000000
1.687541	608.000000	1.486162	239117.000000
1.687148	591.000000	1.485861	243492.000000
1.686756	561.000000	1.485561	246074.000000
1.686364	546.000000	1.485260	247696.000000
1.685971	521.000000	1.484960	247462.000000
1.685580	506.000000	1.484660	246872.000000
1.685188	494.000000	1.484360	246060.000000
1.684796	492.000000	1.484060	244676.000000
1.684405	489.000000	1.483760	242289.000000
1.684014	474.000000	1.483461	240022.000000
1.683623	477.000000	1.483161	236066.000000
1.683232	467.000000	1.482862	230990.000000
1.682841	459.000000	1.482562	223540.000000
1.682451	449.000000	1.482263	215066.000000
1.682061	455.000000	1.481964	204220.000000
1.681671	446.000000	1.481665	192286.000000
1.681281	441.000000	1.481367	179910.000000
1.680891	422.000000	1.481068	166232.000000
1.680502	396.000000	1.480769	152155.000000
1.680112	396.000000	1.480471	138473.000000
1.679723	378.000000	1.480173	125090.000000
1.679334	366.000000	1.479874	113230.000000
1.678945	357.000000	1.479576	101612.000000
1.678557	330.000000	1.479278	91345.000000
1.678168	322.000000	1.478980	81471.000000
1.677780	315.000000	1.478683	72339.000000
1.677392	302.000000	1.478385	63622.000000
1.677004	293.000000	1.478088	55495.000000
1.676616	281.000000	1.477790	47736.000000
1.676229	282.000000	1.477493	40665.000000
1.675841	269.000000	1.477196	34257.000000
1.675454	267.000000	1.476899	28737.000000
1.675067	267.000000	1.476602	24234.000000
1.674680	251.000000	1.476305	20492.000000
1.674293	247.000000	1.476009	17290.000000
1.673907	231.000000	1.475712	14752.000000
1.673521	224.000000	1.475416	12695.000000
1.673135	234.000000	1.475120	10997.000000
1.672749	225.000000	1.474823	9584.000000
1.672363	215.000000	1.474527	8464.000000
1.671977	225.000000	1.474231	7554.000000
1.671592	208.000000	1.473936	6701.000000
1.671207	205.000000	1.473640	6070.000000
1.670822	211.000000	1.473344	5413.000000
1.670437	185.000000	1.473049	4852.000000
1.670052	200.000000	1.472754	4412.000000
1.669667	180.000000	1.472458	3984.000000
1.669283	174.000000	1.472163	3614.000000
1.668899	170.000000	1.471868	3298.000000
1.668515	160.000000	1.471573	2959.000000
1.668131	158.000000	1.471279	2708.000000
1.667747	147.000000	1.470984	2453.000000
1.667364	153.000000	1.470690	2279.000000
1.666981	147.000000	1.470395	2087.000000
1.666598	142.000000	1.470101	1913.000000
1.666215	137.000000	1.469807	1786.000000
1.665832	127.000000	1.469513	1628.000000
1.665449	130.000000	1.469219	1534.000000
1.665067	132.000000	1.468925	1435.000000
1.664685	133.000000	1.468631	1324.000000
1.664303	123.000000	1.468338	1211.000000
1.663921	116.000000	1.468044	1120.000000
1.663539	108.000000	1.467751	1067.000000
1.663157	107.000000	1.467458	962.000000
1.662776	97.000000	1.467165	903.000000
1.662395	105.000000	1.466872	864.000000
1.662014	101.000000	1.466579	809.000000
1.661633	100.000000	1.466286	759.000000
1.661252	98.000000	1.465993	724.000000
1.660872	91.000000	1.465701	685.000000
1.660492	99.000000	1.465409	657.000000
1.660112	100.000000	1.465116	627.000000
1.659732	85.000000	1.464824	570.000000
1.659352	84.000000	1.464532	557.000000
1.658972	86.000000	1.464240	535.000000
1.658593	76.000000	1.463948	516.000000
1.658213	87.000000	1.463657	518.000000
1.657834	83.000000	1.463365	488.000000
1.657455	69.000000	1.463074	480.000000
1.657077	79.000000	1.462782	464.000000
1.656698	73.000000	1.462491	430.000000
1.656320	75.000000	1.462200	424.000000
1.655941	74.000000	1.461909	435.000000
1.655563	75.000000	1.461618	441.000000
1.655186	65.000000	1.461327	431.000000
1.654808	70.000000	1.461037	433.000000
1.654430	71.000000	1.460746	430.000000
1.654053	61.000000	1.460456	427.000000
1.653676	60.000000	1.460165	453.000000
1.653299	64.000000	1.459875	435.000000
1.652922	60.000000	1.459585	431.000000
1.652545	51.000000	1.459295	456.000000
1.652169	69.000000	1.459005	451.000000
1.651792	51.000000	1.458716	462.000000
1.651416	60.000000	1.458426	495.000000
1.651040	51.000000	1.458136	494.000000
1.650664	59.000000	1.457847	510.000000
1.650289	64.000000	1.457558	531.000000
1.649913	69.000000	1.457269	556.000000
1.649538	60.000000	1.456980	585.000000
1.649163	62.000000	1.456691	621.000000
1.648788	65.000000	1.456402	673.000000
1.648413	58.000000	1.456113	727.000000
1.648038	63.000000	1.455825	758.000000
1.647664	59.000000	1.455536	851.000000
1.647290	64.000000	1.455248	911.000000
1.646915	65.000000	1.454960	979.000000
1.646542	54.000000	1.454671	1080.000000
1.646168	60.000000	1.454383	1175.000000
1.645794	71.000000	1.454096	1303.000000
1.645421	55.000000	1.453808	1409.000000
1.645047	52.000000	1.453520	1573.000000
1.644674	51.000000	1.453233	1711.000000
1.644301	64.000000	1.452945	1899.000000
1.643929	52.000000	1.452658	2109.000000
1.643556	68.000000	1.452371	2331.000000
1.643184	57.000000	1.452083	2557.000000
1.642811	66.000000	1.451796	2767.000000
1.642439	47.000000	1.451510	3043.000000
1.642067	39.000000	1.451223	3295.000000
1.641696	61.000000	1.450936	3492.000000
1.641324	57.000000	1.450650	3718.000000
1.640953	55.000000	1.450363	3875.000000
1.640581	55.000000	1.450077	4064.000000
1.640210	64.000000	1.449791	4179.000000
1.639839	56.000000	1.449505	4267.000000
1.639469	61.000000	1.449219	4287.000000
1.639098	54.000000	1.448933	4429.000000
1.638728	58.000000	1.448647	4465.000000
1.638357	52.000000	1.448361	4468.000000
1.637987	53.000000	1.448076	4467.000000
1.637617	55.000000	1.447791	4508.000000
1.637248	55.000000	1.447505	4507.000000
1.636878	67.000000	1.447220	4506.000000
1.636509	57.000000	1.446935	4426.000000
1.636140	53.000000	1.446650	4407.000000
1.635770	59.000000	1.446365	4354.000000
1.635402	51.000000	1.446081	4285.000000
1.635033	55.000000	1.445796	4154.000000
1.634664	65.000000	1.445511	4034.000000
1.634296	68.000000	1.445227	3873.000000
1.633928	59.000000	1.444943	3688.000000
1.633560	63.000000	1.444659	3493.000000
1.633192	62.000000	1.444374	3220.000000
1.632824	60.000000	1.444091	3042.000000
1.632456	63.000000	1.443807	2855.000000
1.632089	57.000000	1.443523	2681.000000
1.631722	59.000000	1.443239	2471.000000
1.631355	54.000000	1.442956	2315.000000
1.630988	54.000000	1.442672	2160.000000
1.630621	64.000000	1.442389	2012.000000
1.630254	59.000000	1.442106	1881.000000
1.629888	56.000000	1.441823	1699.000000
1.629522	54.000000	1.441540	1571.000000
1.629156	61.000000	1.441257	1388.000000
1.628790	59.000000	1.440974	1275.000000
1.628424	59.000000	1.440692	1143.000000
1.628058	58.000000	1.440409	1046.000000
1.627693	65.000000	1.440127	942.000000
1.627328	59.000000	1.439845	824.000000
1.626962	67.000000	1.439563	754.000000
1.626598	51.000000	1.439280	683.000000
1.626233	57.000000	1.438999	625.000000
1.625868	56.000000	1.438717	564.000000
1.625504	68.000000	1.438435	506.000000
1.625139	63.000000	1.438153	482.000000
1.624775	61.000000	1.437872	430.000000
1.624411	59.000000	1.437590	407.000000
1.624048	63.000000	1.437309	372.000000
1.623684	56.000000	1.437028	334.000000
1.623320	66.000000	1.436747	312.000000
1.622957	67.000000	1.436466	306.000000
1.622594	56.000000	1.436185	277.000000
1.622231	60.000000	1.435904	259.000000
1.621868	70.000000	1.435624	234.000000
1.621505	62.000000	1.435343	231.000000
1.621143	71.000000	1.435063	221.000000
1.620781	61.000000	1.434783	208.000000
1.620418	61.000000	1.434502	195.000000
1.620056	60.000000	1.434222	210.000000
1.619695	57.000000	1.433942	187.000000
1.619333	61.000000	1.433662	182.000000
1.618971	59.000000	1.433383	173.000000
1.618610	65.000000	1.433103	185.000000
1.618249	74.000000	1.432824	155.000000
1.617888	55.000000	1.432544	166.000000
1.617527	63.000000	1.432265	154.000000
1.617166	65.000000	1.431986	165.000000
1.616806	60.000000	1.431706	156.000000
1.616445	66.000000	1.431427	144.000000
1.616085	70.000000	1.431149	137.000000
1.615725	79.000000	1.430870	159.000000
1.615365	64.000000	1.430591	143.000000
1.615005	64.000000	1.430313	143.000000
1.614646	65.000000	1.430034	137.000000
1.614286	72.000000	1.429756	132.000000
1.613927	65.000000	1.429478	138.000000
1.613568	70.000000	1.429199	143.000000
1.613209	71.000000	1.428921	137.000000
1.612850	69.000000	1.428644	131.000000
1.612491	65.000000	1.428366	136.000000
1.612133	77.000000	1.428088	136.000000
1.611775	68.000000	1.427811	136.000000
1.611416	79.000000	1.427533	138.000000
1.611058	73.000000	1.427256	135.000000
1.610701	71.000000	1.426978	135.000000
1.610343	66.000000	1.426701	134.000000
1.609985	61.000000	1.426424	141.000000
1.609628	77.000000	1.426147	139.000000
1.609271	69.000000	1.425870	127.000000
1.608914	63.000000	1.425594	133.000000
1.608557	64.000000	1.425317	141.000000
1.608200	75.000000	1.425041	133.000000
1.607844	63.000000	1.424764	134.000000
1.607487	68.000000	1.424488	149.000000
1.607131	78.000000	1.424212	142.000000
1.606775	65.000000	1.423936	150.000000
1.606419	78.000000	1.423660	152.000000
1.606063	60.000000	1.423384	150.000000
1.605707	61.000000	1.423108	149.000000
1.605352	76.000000	1.422832	166.000000
1.604997	68.000000	1.422557	159.000000
1.604641	74.000000	1.422281	165.000000
1.604286	66.000000	1.422006	158.000000
1.603932	63.000000	1.421731	164.000000
1.603577	73.000000	1.421456	154.000000
1.603222	75.000000	1.421181	176.000000
1.602868	58.000000	1.420906	159.000000
1.602514	82.000000	1.420631	165.000000
1.602160	77.000000	1.420356	158.000000
1.601806	79.000000	1.420082	164.000000
1.601452	87.000000	1.419807	172.000000
1.601099	56.000000	1.419533	172.000000
1.600745	78.000000	1.419259	176.000000
1.600392	77.000000	1.418985	177.000000
1.600039	67.000000	1.418711	177.000000
1.599686	69.000000	1.418437	192.000000
1.599333	76.000000	1.418163	185.000000
1.598980	75.000000	1.417889	195.000000
1.598628	72.000000	1.417615	199.000000
1.598275	77.000000	1.417342	209.000000
1.597923	78.000000	1.417068	190.000000
1.597571	82.000000	1.416795	218.000000
1.597219	73.000000	1.416522	208.000000
1.596868	85.000000	1.416249	214.000000
1.596516	78.000000	1.415976	226.000000
1.596165	87.000000	1.415703	215.000000
1.595813	69.000000	1.415430	228.000000
1.595462	70.000000	1.415157	242.000000
1.595111	74.000000	1.414885	222.000000
1.594761	78.000000	1.414612	243.000000
1.594410	75.000000	1.414340	247.000000
1.594059	68.000000	1.414068	260.000000
1.593709	82.000000	1.413796	236.000000
1.593359	77.000000	1.413524	266.000000
1.593009	85.000000	1.413252	257.000000
1.592659	81.000000	1.412980	256.000000
1.592309	74.000000	1.412708	272.000000
1.591960	72.000000	1.412436	266.000000
1.591610	82.000000	1.412165	255.000000
1.591261	76.000000	1.411893	271.000000
1.590912	77.000000	1.411622	275.000000
1.590563	76.000000	1.411351	276.000000
1.590214	83.000000	1.411080	259.000000
1.589866	78.000000	1.410809	267.000000
1.589517	86.000000	1.410538	272.000000
1.589169	77.000000	1.410267	260.000000
1.588821	72.000000	1.409996	262.000000
1.588473	74.000000	1.409726	260.000000
1.588125	78.000000	1.409455	258.000000
1.587777	86.000000	1.409185	264.000000
1.587429	77.000000	1.408915	260.000000
1.587082	87.000000	1.408644	250.000000
1.586735	82.000000	1.408374	256.000000
1.586388	72.000000	1.408104	252.000000
1.586041	76.000000	1.407835	256.000000
1.585694	86.000000	1.407565	253.000000
1.585347	84.000000	1.407295	244.000000
1.585001	78.000000	1.407026	250.000000
1.584654	80.000000	1.406756	244.000000
1.584308	83.000000	1.406487	246.000000
1.583962	75.000000	1.406218	250.000000
1.583616	70.000000	1.405948	242.000000
1.583270	72.000000	1.405679	247.000000
1.582925	80.000000	1.405410	239.000000
1.582579	74.000000	1.405142	241.000000
1.582234	77.000000	1.404873	222.000000
1.581889	85.000000	1.404604	246.000000
1.581544	74.000000	1.404336	243.000000
1.581199	75.000000	1.404067	253.000000
1.580854	73.000000	1.403799	245.000000
1.580510	77.000000	1.403531	233.000000
1.580165	90.000000	1.403263	241.000000
1.579821	69.000000	1.402995	248.000000
1.579477	80.000000	1.402727	249.000000
1.579133	73.000000	1.402459	257.000000
1.578789	78.000000	1.402191	236.000000
1.578446	86.000000	1.401924	263.000000
1.578102	80.000000	1.401656	249.000000
1.577759	81.000000	1.401389	254.000000
1.577415	86.000000	1.401121	245.000000
1.577072	72.000000	1.400854	247.000000
1.576729	78.000000	1.400587	245.000000
1.576387	89.000000	1.400320	240.000000
1.576044	73.000000	1.400053	242.000000
1.575702	79.000000	1.399786	240.000000
1.575359	78.000000	1.399520	228.000000
1.575017	91.000000	1.399253	234.000000
1.574675	87.000000	1.398987	228.000000
1.574333	75.000000	1.398720	209.000000
1.573992	85.000000	1.398454	213.000000
1.573650	84.000000	1.398188	214.000000
1.573309	88.000000	1.397922	195.000000
1.572967	90.000000	1.397656	193.000000
